TABLE ENERGYPRICE0(T,ELEC,reg)
             OIP.USA         GAP.USA          GAP.DEU            GAP.CHI         GAP.ROW          COA.USA          COA.DEU          COA.CHI          COA.ROW
2017        052.00000        003.00000        005.80000        006.50000        008.10000        060.00000        085.00000        095.00000        102.00000
2018        052.96992        003.02716        005.76276        006.45295        007.99908        058.59305        082.73945        094.04626        100.75944
2019        053.93985        003.05433        005.72553        006.40591        007.89816        057.18609        080.47889        093.09252        099.51888
2020        054.90977        003.08149        005.68829        006.35886        007.79724        055.77914        078.21834        092.13878        098.27832
2021        055.87969        003.10865        005.65106        006.31182        007.69632        054.37219        075.95779        091.18504        097.03776
2022        056.84961        003.13582        005.61382        006.26477        007.59540        052.96523        073.69723        090.23130        095.79720
2023        057.81954        003.16298        005.57658        006.21773        007.49448        051.55828        071.43668        089.27756        094.55664
2024        058.78946        003.19014        005.53935        006.17068        007.39356        050.15132        069.17613        088.32381        093.31608
2025        059.75938        003.21731        005.50211        006.12364        007.29264        048.74437        066.91557        087.37007        092.07552
2026        060.72930        003.24447        005.46487        006.07659        007.19172        047.33742        064.65502        086.41633        090.83495
2027        061.69923        003.27163        005.42764        006.02955        007.09079        045.93046        062.39446        085.46259        089.59439
2028        062.66915        003.29880        005.39040        005.98250        006.98987        044.52351        060.13391        084.50885        088.35383
2029        063.63907        003.32596        005.35317        005.93546        006.88895        043.11656        057.87336        083.55511        087.11327
2030        064.60899        003.35312        005.31593        005.88841        006.78803        041.70960        055.61280        082.60137        085.87271
2031        064.44543        003.35721        005.36500        005.93340        006.80439        041.25979        055.44924        081.82443        084.93220
2032        064.28186        003.36130        005.41407        005.97838        006.82075        040.80998        055.28567        081.04748        083.99169
2033        064.11829        003.36539        005.46314        006.02336        006.83710        040.36017        055.12210        080.27054        083.05118
2034        063.95472        003.36948        005.51221        006.06834        006.85346        039.91037        054.95854        079.49360        082.11067
2035        063.79116        003.37357        005.56128        006.11332        006.86982        039.46056        054.79497        078.71665        081.17016
2036        063.62759        003.37766        005.61035        006.15830        006.88617        039.01075        054.63140        077.93971        080.22965
2037        063.46402        003.38175        005.65942        006.20328        006.90253        038.56094        054.46783        077.16277        079.28914
2038        063.30046        003.38584        005.70849        006.24826        006.91889        038.11113        054.30427        076.38582        078.34863
2039        063.13689        003.38993        005.75756        006.29324        006.93524        037.66132        054.14070        075.60888        077.40812
2040        062.97332        003.39402        005.80663        006.33822        006.95160        037.21151        053.97713        074.83193        076.46761
2041        062.80976        003.39811        005.85570        006.38320        006.96796        036.76170        053.81357        074.05499        075.52709
2042        062.64619        003.40220        005.90477        006.42819        006.98431        036.31189        053.65000        073.27805        074.58658
2043        062.48262        003.40628        005.95384        006.47317        007.00067        035.86208        053.48643        072.50110        073.64607
2044        062.31905        003.41037        006.00291        006.51815        007.01703        035.41227        053.32287        071.72416        072.70556
2045        062.15549        003.41446        006.05198        006.56313        007.03338        034.96246        053.15930        070.94722        071.76505
2046        061.99192        003.41855        006.10105        006.60811        007.04974        034.51265        052.99573        070.17027        070.82454
2047        061.82835        003.42264        006.15012        006.65309        007.06610        034.06284        052.83216        069.39333        069.88403
2048        061.66479        003.42673        006.19919        006.69807        007.08245        033.61303        052.66860        068.61639        068.94352
2049        061.50122        003.43082        006.24826        006.74305        007.09881        033.16322        052.50503        067.83944        068.00301
2050        061.33765        003.43491        006.29733        006.78803        007.11517        032.71341        052.34146        067.06250        067.06250
2051        061.17452        003.43900        006.34679        006.83331        007.13156        032.26971        052.17841        066.29445        066.13500
;
